       rho     Ti (keV)  nc(e19 m**3)  Vpol (km/s)  Vtor (km/s) Er (kV/m)    Er_RBpol (krad/s)
     0.00000     1.94142 -5.55177e-08     0.00000     113.389 -0.00459700     61.5034
   0.0100000     1.94025 -0.00885954 8.93236e-07     113.824    0.838895     61.5543
   0.0200000     1.93679  -0.0177977 3.85195e-06     114.152     1.55862     61.5891
   0.0300000     1.93115  -0.0268173 1.09242e-05     114.503     2.43003     61.5917
   0.0400000     1.92340  -0.0359206 2.01775e-05     114.775     3.23723     61.5628
   0.0500000     1.91364  -0.0451103 2.92219e-05     114.994     4.04465     61.5034
   0.0600000     1.90196  -0.0543890 3.28192e-05     115.157     4.84187     61.4144
   0.0700000     1.88845  -0.0637595 2.48477e-05     115.275     5.63507     61.2970
   0.0800000     1.87320  -0.0732246 -2.31499e-06     115.342     6.41493     61.1521
   0.0900000     1.85632  -0.0827874 -5.78399e-05     115.360     7.18307     60.9809
    0.100000     1.83787  -0.0924507 -0.000154542     115.327     7.93766     60.7847
    0.110000     1.81796   -0.102217 -0.000308824     115.241     8.67703     60.5644
    0.120000     1.79668   -0.112091 -0.000530696     115.107     9.40185     60.3206
    0.130000     1.77412   -0.122075 -0.000835212     114.926     10.1123     60.0540
    0.140000     1.75037   -0.132173 -0.00123881     114.698     10.8084     59.7651
    0.150000     1.72552   -0.142388 -0.00175934     114.422     11.4902     59.4545
    0.160000     1.69966   -0.152724 -0.00241967     114.099     12.1578     59.1229
    0.170000     1.67288   -0.163184 -0.00325408     113.725     12.8099     58.7711
    0.180000     1.64528   -0.173773 -0.00427183     113.306     13.4482     58.3996
    0.190000     1.61695   -0.184495 -0.00549679     112.841     14.0731     58.0087
    0.200000     1.58797   -0.195353 -0.00695416     112.331     14.6844     57.5985
    0.210000     1.55844   -0.206353 -0.00867048     111.777     15.2815     57.1688
    0.220000     1.52844   -0.217499  -0.0106736     111.178     15.8634     56.7187
    0.230000     1.49808   -0.228795  -0.0129926     110.536     16.4294     56.2486
    0.240000     1.46744   -0.240246  -0.0156903     109.847     16.9778     55.7605
    0.250000     1.43661   -0.251858  -0.0187767     109.114     17.5095     55.2556
    0.260000     1.40568   -0.263635  -0.0222788     108.339     18.0227     54.7321
    0.270000     1.37475   -0.275583  -0.0262293     107.523     18.5159     54.1891
    0.280000     1.34391   -0.287707  -0.0306611     106.665     18.9874     53.6281
    0.290000     1.31324   -0.300015  -0.0356084     105.766     19.4365     53.0496
    0.300000     1.28284   -0.312511  -0.0411053     104.828     19.8612     52.4523
    0.310000     1.25280   -0.325201  -0.0471841     103.849     20.2595     51.8365
    0.320000     1.22320   -0.338094  -0.0538949     102.829     20.6287     51.2033
    0.330000     1.19415   -0.351194  -0.0612942     101.768     20.9662     50.5528
    0.340000     1.16574   -0.364511  -0.0693756     100.669     21.2729     49.8851
    0.350000     1.13804   -0.378050  -0.0781674     99.5309     21.5472     49.2008
    0.360000     1.11116   -0.391820  -0.0876940     98.3558     21.7872     48.5001
    0.370000     1.08519   -0.405829  -0.0979799     97.1435     21.9908     47.7824
    0.380000     1.06015   -0.420085   -0.109051     95.8946     22.1562     47.0433
    0.390000     1.03603   -0.434597   -0.120937     94.6106     22.2834     46.2831
    0.400000     1.01278   -0.449375   -0.133667     93.2946     22.3739     45.5040
    0.410000    0.990373   -0.464428   -0.147271     91.9501     22.4290     44.7083
    0.420000    0.968780   -0.479766   -0.161813     90.5795     22.4488     43.8981
    0.430000    0.947965   -0.495399   -0.177315     89.1871     22.4346     43.0762
    0.440000    0.927893   -0.511339   -0.193761     87.7775     22.3884     42.2445
    0.450000    0.908533   -0.527598   -0.211166     86.3544     22.3110     41.4052
    0.460000    0.889851   -0.544186   -0.229543     84.9215     22.2035     40.5606
    0.470000    0.871813   -0.561118   -0.248905     83.4826     22.0673     39.7126
    0.480000    0.854387   -0.578406   -0.269262     82.0416     21.9038     38.8633
    0.490000    0.837539   -0.596064   -0.290615     80.6023     21.7142     38.0148
    0.500000    0.821236   -0.614108   -0.312961     79.1687     21.4998     37.1694
    0.510000    0.805445   -0.632552   -0.336303     77.7448     21.2626     36.3288
    0.520000    0.790132   -0.651412   -0.360639     76.3347     21.0047     35.4953
    0.530000    0.775264   -0.670706   -0.385967     74.9426     20.7282     34.6708
    0.540000    0.760809   -0.690453   -0.412280     73.5724     20.4353     33.8574
    0.550000    0.746732   -0.710670   -0.439544     72.2284     20.1283     33.0571
    0.560000    0.733001   -0.731378   -0.467626     70.9146     19.8091     32.2715
    0.570000    0.719582   -0.752597   -0.496294     69.6296     19.4799     31.5011
    0.580000    0.706442   -0.774351   -0.525345     68.3716     19.1420     30.7453
    0.590000    0.693548   -0.796663   -0.554583     67.1394     18.7968     30.0039
    0.600000    0.680867   -0.819559   -0.583803     65.9312     18.4452     29.2766
    0.610000    0.668365   -0.843062   -0.612796     64.7458     18.0879     28.5629
    0.620000    0.656010   -0.867204   -0.641353     63.5816     17.7259     27.8626
    0.630000    0.643767   -0.892013   -0.669271     62.4371     17.3598     27.1752
    0.640000    0.631604   -0.917520   -0.696344     61.3109     16.9904     26.5003
    0.650000    0.619490   -0.943760   -0.722369     60.2015     16.6185     25.8381
    0.660000    0.607410   -0.970767   -0.747144     59.1074     16.2450     25.1886
    0.670000    0.595353   -0.998581   -0.770482     58.0271     15.8708     24.5516
    0.680000    0.583308    -1.02724   -0.792195     56.9593     15.4962     23.9266
    0.690000    0.571264    -1.05679   -0.812099     55.9022     15.1217     23.3131
    0.700000    0.559210    -1.08728   -0.830019     54.8546     14.7479     22.7108
    0.710000    0.547137    -1.11878   -0.845780     53.8150     14.3749     22.1193
    0.720000    0.535032    -1.15532   -0.859217     52.7818     14.0024     21.5370
    0.730000    0.522885    -1.19994   -0.869971     51.7539     13.6303     20.9628
    0.740000    0.510686    -1.25306   -0.878035     50.7294     13.2588     20.3963
    0.750000    0.498424    -1.31515   -0.883262     49.7067     12.8881     19.8369
    0.760000    0.486087    -1.38673   -0.885525     48.6844     12.5183     19.2842
    0.770000    0.473666    -1.46841   -0.884714     47.6610     12.1500     18.7376
    0.780000    0.461149    -1.56091   -0.880733     46.6350     11.7833     18.1967
    0.790000    0.448526    -1.66503   -0.873496     45.6052     11.4185     17.6610
    0.800000    0.435785    -1.78172   -0.862918     44.5700     11.0555     17.1298
    0.810000    0.422917    -1.91210   -0.848928     43.5282     10.6942     16.6024
    0.820000    0.409910    -2.05748   -0.830852     42.4770     10.3347     16.0784
    0.830000    0.396753    -2.21943   -0.808983     41.4160     9.97666     15.5571
    0.840000    0.383436    -2.39981   -0.783869     40.3465     9.61959     15.0379
    0.850000    0.369948    -2.60085   -0.755781     39.2690     9.26329     14.5197
    0.860000    0.356282    -2.82526   -0.724987     38.1840     8.90775     14.0023
    0.870000    0.342446    -3.07632   -0.691284     37.0907     8.55355     13.4858
    0.880000    0.328453    -3.35807   -0.655073     35.9894     8.20140     12.9694
    0.890000    0.314314    -3.67555   -0.617123     34.8822     7.85080     12.4518
    0.900000    0.300041    -4.03502   -0.577658     33.7695     7.50158     11.9313
    0.910000    0.285647    -4.44450   -0.536404     32.6496     7.15397     11.4071
    0.920000    0.271144    -4.91426   -0.493873     31.5239     6.80580     10.8772
    0.930000    0.256543    -5.45221   -0.450485     30.3941     6.45760     10.3390
    0.940000    0.241858    -6.03465   -0.405993     29.2586     6.10989     9.79886
    0.950000    0.227100    -6.66468   -0.360605     28.1178     5.75882     9.25619
    0.960000    0.212281    -7.35417   -0.314788     26.9744     5.40476     8.69770
    0.970000    0.197414    -8.11821   -0.268183     25.8244     5.03401     8.11697
    0.980000    0.182510    -8.97648   -0.221480     24.6715     4.66251     7.52970
    0.990000    0.167582    -9.95537   -0.174585     23.5129     4.28952     6.94384
     1.00000    0.152642    -11.0913   -0.127690     22.3544     3.91653     6.34958
